FileType=PCF										
NHL=14										
Date=07/13/13	13:31:05									
Facility=APL										
Serial=13058-1										
Customer=Cal Poly										
NP=6										
Mach=0.205										
Calibration=1:1										
CalPts=501										
TstPts=81										
PortNumbering=AP Standard										
Units=Torr C m/s kg/m^3 deg mm 										
Theta[deg]	Phi[deg]	P1[Torr]	P2[Torr]	P3[Torr]	P4[Torr]	P5[Torr]	P6[Torr]	Pt[Torr]	"Ps[Abs,Torr]"	Ts[C]
22.05	180	15.90926	-3.36519	19.75892	7.53563	7.1932	-1.63495	20.20209	709.00201	22.9
21.455	154.942	16.24625	-2.23118	18.4488	12.90261	2.74529	-1.56124	20.21758	709.05603	22.9
20.753	159.24	16.43766	-1.99506	18.64014	12.16587	3.82583	-1.45143	20.19126	709.04401	22.9
20.182	163.815	16.66866	-1.89442	18.94024	11.31603	4.90495	-1.39679	20.12653	709.224	22.9
19.753	168.629	16.87312	-1.81867	19.12824	10.51671	5.88549	-1.28683	20.21291	709.23999	22.9
19.53	172.36	16.94013	-1.75741	19.23433	9.80445	6.59642	-1.30283	20.24016	709.16602	22.9
19.395	176.162	16.95572	-1.64736	19.30482	9.18061	7.41254	-1.21367	20.24699	709.24799	22.9
19.355	178.719	16.97574	-1.62855	19.33942	8.66232	7.79516	-1.2938	20.19469	709.22198	22.9
19.35	180	16.96321	-1.5444	19.35159	8.45726	8.0712	-1.19562	20.23564	709.15601	22.9
19.355	-178.719	16.95494	-1.59865	19.29069	8.1935	8.27332	-1.16575	20.22388	709.03802	22.9
19.395	-176.162	16.96328	-1.54641	19.39623	7.79362	8.80701	-1.19969	20.25408	709.19202	22.9
19.53	-172.36	16.8469	-1.63143	19.28212	6.99973	9.34291	-1.34995	20.13792	709.17999	22.9
19.753	-168.629	16.70052	-1.81144	19.18706	6.16142	9.9912	-1.49421	20.09507	709.10199	22.9
20.182	-163.815	16.58766	-1.90293	19.16474	5.24836	10.94134	-1.53737	20.28576	709.18597	22.9
20.753	-159.24	16.40801	-2.08447	19.12636	4.16269	11.7682	-1.69805	20.32382	708.974	22.9
21.455	-154.942	16.05564	-2.30688	18.87153	2.97919	12.43679	-1.86651	20.26627	709.11401	22.9
21.594	-141.128	16.01402	-1.22411	17.30936	0.72554	15.00634	-1.62676	20.16918	709.07599	22.9
20.005	-146.882	16.62398	-0.75062	17.85405	2.46897	13.99034	-1.49367	20.14646	709.10999	22.9
19.079	-151.233	16.97663	-0.55027	18.12408	3.54237	13.32534	-1.42116	20.16018	709.11798	22.9
18.278	-156.005	17.30948	-0.32118	18.38662	4.7679	12.61011	-1.28361	20.27525	709.15399	22.9
17.62	-161.18	17.51165	-0.18556	18.5215	5.8197	11.75611	-1.12855	20.20468	709.09003	22.9
17.122	-166.712	17.67714	-0.06643	18.66471	6.86468	10.86282	-1.08594	20.11059	709.112	22.9
16.861	-171.049	17.77628	0.00824	18.70738	7.65985	10.15153	-1.03018	20.08212	709.12402	22.9
16.703	-175.496	17.80455	0.13637	18.68659	8.48534	9.4582	-0.87506	20.13138	709.04999	22.9
16.656	-178.496	17.90173	0.10776	18.77864	8.95117	9.05744	-0.89164	20.15001	709.01398	22.9
16.65	180	17.83669	0.11508	18.68332	9.18204	8.76178	-0.89667	20.07231	709.01398	22.9
16.656	178.496	17.89588	0.14596	18.752	9.47069	8.60888	-0.83853	20.22209	709.052	22.9
16.703	175.496	17.79288	0.04767	18.60278	9.86819	7.99625	-0.94531	20.05351	709.16803	22.9
16.861	171.049	17.7731	-0.05526	18.57872	10.61321	7.33638	-0.93531	20.16004	709.01001	22.9
17.122	166.712	17.71455	-0.07963	18.51002	11.28098	6.60829	-1.00077	20.22373	708.96002	23
17.62	161.18	17.55479	-0.12891	18.27081	12.21088	5.53986	-1.09006	20.11741	709.15802	23
18.278	156.005	17.33699	-0.30916	18.00028	12.93305	4.54887	-1.25304	20.15736	709.00598	23
19.079	151.233	17.05363	-0.48433	17.70436	13.77235	3.42012	-1.29847	20.0986	709.13202	23
20.005	146.882	16.7129	-0.79908	17.34919	14.40181	2.31495	-1.37937	20.06336	709.086	23
21.594	141.128	16.1265	-1.21273	16.89695	15.43155	0.65111	-1.64463	20.21707	709.07397	23
21.594	130.924	16.14756	-0.01566	15.33414	16.95648	-0.61591	-1.59215	20.09951	709.052	23
19.63	135.858	16.90111	0.58368	16.00043	16.15254	1.15678	-1.32228	20.17484	709.07001	23
17.851	141.854	17.4781	0.84397	16.57773	15.16374	2.75494	-1.11677	20.11132	709.04401	23
16.797	146.536	17.89217	1.07963	16.94585	14.44238	3.86354	-1.01667	20.16413	709.03802	23
15.873	151.813	18.12451	1.33345	17.28307	13.73332	5.02763	-0.86484	20.16192	709.10199	23
15.104	157.691	18.33634	1.4658	17.54218	12.88372	6.1276	-0.75598	20.16727	708.99402	23
14.515	164.128	18.41998	1.52671	17.67003	11.95533	7.10374	-0.71257	20.06255	709.13202	23
14.204	169.262	18.54056	1.56675	17.79327	11.26577	7.86661	-0.66687	20.10431	709	23
14.014	174.582	18.59935	1.81748	17.86434	10.56793	8.69709	-0.55535	20.13778	709.01398	23
13.957	178.189	18.60121	1.84492	17.90106	10.09364	9.14899	-0.51967	20.15378	709.04797	23
13.95	180	18.64702	1.85297	17.95503	9.84117	9.4164	-0.53612	20.10349	709.138	23
13.957	-178.189	18.63535	1.85997	17.96972	9.59969	9.76004	-0.54523	20.22496	709.06799	23
14.014	-174.582	18.57845	1.84168	17.91001	9.05653	10.17887	-0.57401	20.14968	709.08197	23
14.204	-169.262	18.47326	1.69889	17.82953	8.18789	10.81491	-0.72134	20.05946	709.14398	23
14.515	-164.128	18.3698	1.64107	17.7479	7.38717	11.49565	-0.76147	19.99381	709.24597	23
15.104	-157.691	18.31111	1.592	17.77116	6.37131	12.56231	-0.72966	20.19626	709.07599	23
15.873	-151.813	18.02827	1.45491	17.51615	5.29664	13.32133	-0.87615	20.14237	709.11603	23
16.797	-146.536	17.78365	1.25643	17.33085	4.16851	14.15076	-1.07002	20.13107	709.06	23
17.851	-141.854	17.33254	0.99297	16.90774	2.97701	14.71355	-1.20128	19.96221	709.11798	23
19.63	-135.858	16.75002	0.6514	16.39941	1.30138	15.79784	-1.3427	20.14685	709.05798	23
21.594	-130.924	15.87332	0.0848	15.63065	-0.52062	16.41932	-1.75407	19.96724	709.04797	23
20.005	-124.769	16.55376	1.80646	14.60042	-0.05066	17.21136	-1.46398	20.07301	709.00598	23
17.851	-129.526	17.40474	2.39442	15.37782	1.68113	16.48791	-1.18266	20.14715	708.96802	23.1
15.858	-135.556	18.03337	2.83576	15.93726	3.42686	15.42971	-0.84011	20.08342	709.02802	23
14.653	-140.463	18.34864	3.06213	16.23872	4.57469	14.71755	-0.71321	20.10088	709.12799	23.1
13.577	-146.208	18.60676	3.19386	16.48513	5.63357	13.93193	-0.69586	20.08515	709.13202	23.1
12.663	-152.869	18.89245	3.32456	16.75476	6.79003	13.11596	-0.4988	20.1054	709.02002	23.1
11.948	-160.452	19.07475	3.4355	16.89885	7.91288	12.23246	-0.34464	20.0967	709.03601	23.1
11.565	-166.677	19.05199	3.52353	16.88655	8.72398	11.45914	-0.34802	20.06713	709.04797	23.1
11.33	-173.245	19.11693	3.52858	16.8884	9.46278	10.72295	-0.33886	20.04419	708.96399	23.1
11.259	-177.739	19.16397	3.60483	16.95526	10.06447	10.28684	-0.23766	20.11168	709.12	23.1
11.25	180	19.19816	3.61612	16.95477	10.35986	10.05702	-0.24115	20.16108	709.07001	23.1
11.259	177.739	19.18678	3.56556	16.91016	10.63423	9.73297	-0.24696	20.12487	708.87	23.1
11.33	173.245	19.17681	3.5756	16.92677	11.11786	9.2235	-0.2415	20.13061	708.94397	23.1
11.565	166.677	19.09193	3.49464	16.81645	11.84625	8.43172	-0.29551	20.1328	709.01001	23.1
11.948	160.452	18.99409	3.26553	16.68367	12.53279	7.54466	-0.40268	20.04737	709	23.1
12.663	152.869	18.8557	3.16155	16.51983	13.44328	6.47978	-0.51481	20.00135	709.034	23.1
13.577	146.208	18.72755	3.05907	16.34722	14.40707	5.46157	-0.511	20.18361	709.06201	23.1
14.653	140.463	18.46422	2.85866	16.04109	15.16226	4.34123	-0.64098	20.19123	709.07397	23.1
15.858	135.556	18.18624	2.85092	15.67252	15.91687	3.36815	-0.72306	20.19471	709.086	23.1
17.851	129.526	17.44217	2.27567	14.90336	16.68591	1.51722	-1.12314	20.01714	709.08398	23.1
20.005	124.769	16.70763	1.78267	14.23556	17.56037	-0.11837	-1.32796	20.11465	709.17999	23.1
21.455	116.672	16.2229	2.29253	12.78703	18.66714	-1.54181	-1.35445	20.22961	709.14398	23.1
19.079	120.153	17.02851	2.8923	13.46272	17.86608	0.10689	-1.18635	20.04176	709.19397	23.1
16.797	124.622	17.75763	3.4581	14.17377	17.01948	1.74222	-0.89126	19.9779	709.13202	23.1
14.653	130.47	18.42745	3.90601	14.86446	16.07946	3.46047	-0.65355	20.03688	708.96002	23.1
13.334	135.391	18.70441	4.14652	15.13684	15.41706	4.54024	-0.54137	19.98085	709.15399	23.1
12.136	141.348	18.96697	4.25091	15.52188	14.64138	5.63621	-0.38742	20.03156	709.09003	23.1
11.1	148.518	19.21237	4.42277	15.80415	13.81316	6.76939	-0.25473	20.12299	709.04797	23.1
10.274	157.007	19.2815	4.56536	15.94064	12.85018	7.85297	-0.23671	20.02918	709.10999	23.1
9.825	164.198	19.33398	4.65109	16.00659	12.13119	8.5833	-0.14237	19.96663	709.18597	23.2
9.545	171.944	19.37897	4.72746	16.10168	11.34828	9.43305	-0.19032	20.03225	708.96802	23.1
9.461	177.298	19.41196	4.74388	16.14745	10.91122	10.00576	-0.0692	20.03955	709.034	23.2
9.45	180	19.4406	4.68982	16.10819	10.46787	10.17027	-0.1918	20.03318	708.92401	23.2
9.461	-177.298	19.37409	4.68503	16.10609	10.22107	10.44888	-0.18056	19.98753	708.95203	23.2
9.545	-171.944	19.36729	4.73036	16.16267	9.78592	11.07276	-0.15625	20.02547	708.91803	23.2
9.825	-164.198	19.41889	4.70839	16.19847	9.00312	11.84474	-0.16325	20.17161	708.90399	23.2
10.274	-157.007	19.27464	4.64019	16.12158	8.14861	12.55161	-0.24518	20.0662	708.95801	23.2
11.1	-148.518	19.19456	4.55019	15.98815	7.07607	13.44913	-0.30518	20.10673	708.93597	23.2
12.136	-141.348	18.99089	4.40102	15.78849	5.9464	14.32081	-0.42945	20.11943	709.04999	23.2
13.334	-135.391	18.70053	4.21476	15.47447	4.77453	15.03093	-0.59122	20.09332	708.90802	23.2
14.653	-130.47	18.427	4.01425	15.2202	3.75186	15.85329	-0.66871	20.14843	709.026	23.2
16.797	-124.622	17.80644	3.61805	14.66124	2.01175	16.8745	-0.9659	20.15334	708.95801	23.2
19.079	-120.153	16.94063	3.02124	13.91576	0.25827	17.63619	-1.32271	20.09236	708.94	23.2
21.455	-116.672	16.00855	2.27491	13.01384	-1.57782	18.22026	-1.69259	20.06415	709.09802	23.2
20.753	-112.067	16.20417	3.38965	12.17566	-1.3855	18.43508	-1.59268	20.01121	709.01398	23.2
18.278	-115.116	17.21523	4.13173	13.05278	0.3503	17.87102	-1.18351	20.05034	709.09003	23.2
15.873	-119.125	18.04208	4.72433	13.77277	2.12501	17.08262	-0.85375	20.07715	708.91602	23.2
13.577	-124.547	18.66527	5.16489	14.42987	3.87309	16.10671	-0.562	20.08077	708.97601	23.2
12.136	-129.286	18.9334	5.35299	14.66208	4.98052	15.33357	-0.44607	20.01785	708.966	23.2
10.803	-135.256	19.20796	5.56797	14.97246	6.16783	14.54948	-0.29471	20.05493	708.896	23.3
9.62	-142.807	19.29787	5.63303	15.05228	7.17406	13.58889	-0.30284	19.87567	708.92999	23.3
8.65	-152.264	19.50186	5.82044	15.24281	8.36199	12.76605	-0.10118	19.97033	708.94	23.3
8.11	-160.674	19.57828	5.85411	15.35604	9.17952	12.06543	0.01983	20.03614	708.84003	23.3
7.768	-170.051	19.71264	5.90933	15.47901	10.04047	11.39032	0.05153	20.089	708.84998	23.3
7.663	-176.654	19.59945	5.89784	15.38094	10.54889	10.75629	0.01051	20.05016	708.92603	23.3
7.65	180	19.63735	5.90917	15.40984	10.81801	10.57906	0.01359	20.0316	708.88202	23.3
7.663	176.654	19.62902	5.91476	15.35986	11.07352	10.26506	0.011	20.06755	708.896	23.3
7.768	170.051	19.63904	5.91121	15.34065	11.64184	9.77428	0.07225	20.06301	708.93799	23.3
8.11	160.674	19.59215	5.82974	15.21929	12.37772	8.82688	-0.01854	19.95157	708.99402	23.3
8.65	152.264	19.52171	5.81506	15.11672	13.07072	8.05608	-0.08486	19.98829	708.79999	23.3
9.62	142.807	19.42007	5.767	14.9839	14.08017	7.09991	-0.0685	20.0952	708.93201	23.3
10.803	135.256	19.19223	5.53043	14.71626	14.84478	5.9143	-0.28925	20.03012	708.88397	23.3
12.136	129.286	18.98884	5.37104	14.46324	15.72217	4.85584	-0.31493	20.08301	708.83398	23.3
13.577	124.547	18.635	5.0894	14.01554	16.42463	3.68653	-0.51118	20.04563	708.94	23.3
15.873	119.125	18.04765	4.58836	13.35199	17.34185	1.94012	-0.7931	19.98342	708.88397	23.3
18.278	115.116	17.18093	3.97111	12.59126	18.0054	0.21831	-1.23417	19.92617	708.91602	23.3
20.753	112.067	16.38186	3.31761	11.90111	18.70605	-1.43619	-1.49469	20.04841	708.92603	23.3
20.182	107.183	16.52445	4.40805	10.98374	18.81736	-1.30266	-1.40674	19.90606	708.83398	23.3
17.62	109.676	17.49899	5.19543	11.87247	18.32955	0.44193	-1.07089	20.04562	708.89398	23.3
15.104	113.026	18.30448	5.76342	12.60632	17.6133	2.15215	-0.73531	20.08249	708.828	23.3
12.663	117.708	18.79448	6.19158	13.15644	16.56527	3.78803	-0.53147	19.97726	708.90399	23.3
11.1	121.966	19.11185	6.38988	13.5282	15.80121	4.9247	-0.31992	19.95599	709.01001	23.4
9.62	127.584	19.36268	6.6864	13.83619	15.06412	6.14392	-0.11399	20.02383	708.91199	23.4
8.266	135.15	19.49386	6.86248	14.02801	14.12009	7.20979	-0.08013	19.96899	708.94202	23.4
7.111	145.42	19.64116	7.00543	14.30454	13.34195	8.33144	0.02277	19.96287	708.87201	23.4
6.441	155.309	19.75382	7.10232	14.38928	12.64511	9.11578	0.18048	20.07272	708.98602	23.4
6.003	167.05	19.76389	7.05245	14.44105	11.79584	9.92186	0.14306	19.99586	708.81598	23.4
5.867	175.617	19.72946	7.05989	14.44043	11.30155	10.47035	0.16864	20.00348	708.83398	23.4
5.85	180	19.73337	7.04749	14.44342	11.02968	10.77032	0.17658	20.00547	708.87598	23.4
5.867	-175.617	19.73584	7.092	14.50321	10.80333	11.05175	0.13123	20.01951	708.84003	23.4
6.003	-167.05	19.69814	7.04492	14.42703	10.16654	11.48613	0.07344	19.9904	708.948	23.4
6.441	-155.309	19.78959	7.09367	14.51874	9.44768	12.36959	0.1747	20.05012	708.88	23.4
7.111	-145.42	19.62591	6.98269	14.34422	8.51254	12.98612	-0.05002	19.96959	708.76599	23.4
8.266	-135.15	19.55373	6.90233	14.2428	7.50872	13.89989	-0.02877	19.98157	708.92798	23.4
9.62	-127.584	19.36206	6.75979	14.06213	6.38861	14.79783	-0.17248	20.00731	708.95203	23.4
11.1	-121.966	19.09801	6.50532	13.76534	5.17256	15.58	-0.35442	19.96656	709.02802	23.4
12.663	-117.708	18.76874	6.24367	13.44522	3.9808	16.30313	-0.49612	20.00973	709.06201	23.4
15.104	-113.026	18.1563	5.80808	12.85657	2.28736	17.26815	-0.78449	19.97428	708.84601	23.4
17.62	-109.676	17.38913	5.20585	12.17906	0.53795	18.07781	-1.19816	19.97878	708.95801	23.4
20.182	-107.183	16.52607	4.56367	11.31852	-1.33259	18.74837	-1.58847	20.10066	708.84601	23.4
19.753	-102.062	16.64904	5.65281	10.40633	-1.13051	18.91552	-1.42956	20.03008	708.91998	23.4
17.122	-103.88	17.54642	6.23927	11.16713	0.58952	18.288	-1.0459	20.03253	708.79999	23.4
14.515	-106.368	18.3641	6.9011	11.98784	2.30735	17.45358	-0.79781	19.99324	708.776	23.4
11.948	-109.947	18.98622	7.37794	12.55811	4.08444	16.49079	-0.39658	20.0546	708.84802	23.4
10.274	-113.328	19.2684	7.6284	12.89245	5.23712	15.78894	-0.26517	20.07273	708.82397	23.5
8.65	-118.007	19.47932	7.8149	13.08212	6.44185	14.8905	-0.09179	19.96506	708.89398	23.5
7.111	-124.787	19.63117	7.94459	13.27114	7.60386	14.07925	0.09824	19.9728	708.776	23.5
5.725	-135.072	19.67453	8.13907	13.45219	8.706	13.14353	0.1513	19.93063	708.90802	23.5
4.866	-146.364	19.73404	8.19076	13.45072	9.46238	12.44124	0.24453	19.97077	708.92401	23.5
4.269	-161.595	19.70449	8.17484	13.52797	10.32181	11.72432	0.19698	19.92643	708.81598	23.5
4.075	-173.67	19.80635	8.21406	13.52185	10.90772	11.14664	0.27256	19.97445	708.76398	23.5
4.05	180	19.77959	8.23096	13.52235	11.13061	10.88944	0.23028	20.01429	708.77197	23.5
4.075	173.67	19.76518	8.17923	13.53712	11.40091	10.65159	0.26209	19.99614	708.888	23.5
4.269	161.595	19.74141	8.20237	13.45337	11.9246	10.06342	0.19369	19.91833	708.90997	23.5
4.866	146.364	19.7608	8.18275	13.43958	12.66797	9.26993	0.20911	19.95909	708.76398	23.5
5.725	135.072	19.7667	8.07251	13.35992	13.46122	8.56121	0.15727	20.03067	708.76599	23.5
7.111	124.787	19.66268	7.98181	13.16984	14.30701	7.37483	0.02142	19.99351	708.81	23.5
8.65	118.007	19.50093	7.78017	12.95691	15.23545	6.25633	-0.05328	20.02491	708.97198	23.5
10.274	113.328	19.30962	7.53648	12.65341	16.02526	5.10591	-0.20072	20.00693	708.84601	23.5
11.948	109.947	18.97426	7.27975	12.25769	16.73044	3.92306	-0.3858	20.00269	708.84802	23.5
14.515	106.368	18.46292	6.85945	11.69381	17.72968	2.17959	-0.75249	20.06545	708.83002	23.5
17.122	103.88	17.62043	6.2371	10.92891	18.4674	0.59465	-1.06121	19.96578	708.75598	23.5
19.753	102.062	16.7436	5.50896	10.14555	19.06803	-1.1529	-1.3728	19.97645	708.92603	23.5
19.53	98.1	16.83245	6.29566	9.41929	19.04223	-1.08793	-1.35755	19.99302	708.87201	23.5
16.861	99.346	17.67701	7.05041	10.18871	18.4417	0.51262	-1.09063	19.8953	708.854	23.5
14.204	101.068	18.47848	7.62057	10.95386	17.73752	2.27182	-0.61674	20.01077	708.86798	23.5
11.565	103.589	19.0842	8.11767	11.53996	16.77222	3.90436	-0.34962	20.00837	708.84601	23.5
9.825	106.025	19.28786	8.3594	11.90823	16.11641	5.11217	-0.15766	19.93802	708.974	23.5
8.11	109.507	19.56996	8.54615	12.21122	15.29012	6.27337	0.01133	20.0176	708.82202	23.5
6.441	114.829	19.66236	8.73746	12.39367	14.39222	7.38338	0.07378	19.95448	708.76202	23.5
4.866	123.732	19.76183	8.90608	12.63158	13.5432	8.57027	0.18088	20.00105	708.854	23.5
3.818	135.032	19.81445	9.00547	12.73304	12.81083	9.42215	0.28675	20.02193	708.88599	23.5
3.018	153.454	19.80208	9.0848	12.75803	12.01201	10.177	0.27075	19.99011	708.91602	23.5
2.737	170.545	19.82452	9.0586	12.76075	11.4866	10.71477	0.32793	20.04047	708.88397	23.5
2.7	180	19.76762	9.02659	12.75282	11.17992	10.95068	0.26065	19.95345	708.88397	23.5
2.737	-170.545	19.78408	9.04683	12.79177	10.93704	11.25575	0.29447	19.96439	708.92603	23.6
3.018	-153.454	19.75434	9.04516	12.7204	10.35033	11.79904	0.22801	20.00624	708.92603	23.5
3.818	-135.032	19.79772	9.04484	12.72723	9.55032	12.50631	0.24018	19.95358	708.98199	23.5
4.866	-123.732	19.77096	8.89804	12.70687	8.83298	13.22768	0.19563	19.99035	708.896	23.6
6.441	-114.829	19.66969	8.73079	12.5271	7.63702	14.10397	0.06966	19.93905	708.90802	23.6
8.11	-109.507	19.54167	8.63441	12.36809	6.47117	15.07261	-0.08804	20.01266	708.84198	23.6
9.825	-106.025	19.30839	8.39607	12.12816	5.26984	15.86885	-0.25837	19.99087	709.01398	23.6
11.565	-103.589	18.9955	8.15833	11.79037	4.0999	16.556	-0.42683	19.95822	708.94	23.6
14.204	-101.068	18.37173	7.66638	11.15066	2.36591	17.47073	-0.76462	19.89132	708.862	23.6
16.861	-99.346	17.68692	7.12247	10.50015	0.67687	18.32609	-1.10391	19.97047	708.90198	23.6
19.53	-98.1	16.71422	6.43058	9.65213	-1.14956	18.94697	-1.49267	19.97562	708.79999	23.6
19.395	-94.068	16.73656	7.12363	8.85286	-1.13149	18.98742	-1.55623	19.88225	708.90997	23.6
16.703	-94.702	17.69636	7.89645	9.71702	0.65659	18.33934	-1.14516	19.95924	708.91602	23.6
14.014	-95.583	18.50414	8.46604	10.46348	2.43104	17.58099	-0.71484	19.95974	708.77399	23.6
11.33	-96.888	19.11289	9.0266	11.07616	4.23012	16.7004	-0.29408	20.07744	708.84601	23.6
9.545	-98.168	19.33397	9.1901	11.30871	5.25937	15.88585	-0.25563	19.91217	708.992	23.6
7.768	-100.039	19.58627	9.48014	11.65611	6.55784	15.17865	0.03926	19.99929	708.896	23.6
6.003	-103.019	19.69472	9.58966	11.85516	7.66035	14.30778	0.10585	20.01227	709.08197	23.6
4.269	-108.452	19.82871	9.72939	11.98845	8.85046	13.3905	0.23769	20.04105	708.83002	23.6
3.018	-116.578	19.78828	9.79773	11.99583	9.69655	12.58168	0.29761	19.98464	708.99597	23.6
1.909	-135.008	19.82449	9.87234	12.01725	10.50879	11.82174	0.30108	19.98011	708.79797	23.6
1.423	-161.568	19.79441	9.87716	11.97804	10.93214	11.27026	0.30087	20.01101	708.94397	23.6
1.35	180	19.80721	9.89148	12.03219	11.25061	11.03872	0.2957	19.97069	708.83801	23.6
1.423	161.568	19.71142	9.86328	12.00567	11.5325	10.77512	0.28098	19.85661	708.854	23.6
1.909	135.008	19.70223	9.84886	11.92723	12.04211	10.24868	0.33781	19.94597	708.90002	23.6
3.018	116.578	19.78581	9.81197	11.90134	12.77396	9.39746	0.24056	19.98488	708.95203	23.6
4.269	108.452	19.76793	9.71889	11.82153	13.52468	8.54299	0.22543	19.983	708.854	23.6
6.003	103.019	19.63425	9.57981	11.65201	14.43738	7.47121	0.12794	19.98475	708.758	23.6
7.768	100.039	19.49493	9.34775	11.34789	15.21922	6.2244	-0.01203	19.87109	708.81	23.6
9.545	98.168	19.39114	9.18556	11.13646	16.11942	5.155	-0.15375	20.01256	708.95001	23.6
11.33	96.888	19.10266	8.94102	10.84848	16.84331	4.08246	-0.31295	20.00525	708.91803	23.7
14.014	95.583	18.51087	8.40267	10.21381	17.76848	2.3044	-0.70893	19.96259	708.78601	23.6
16.703	94.702	17.81028	7.87314	9.54291	18.54484	0.64837	-1.03479	19.99924	708.84198	23.7
19.395	94.068	16.88202	7.05554	8.73769	19.08999	-1.00906	-1.37386	19.99041	708.84802	23.7
19.355	91.358	16.89495	7.57329	8.29907	19.13167	-0.99019	-1.37889	19.97838	708.84601	23.7
16.656	91.57	17.76159	8.32688	9.01386	18.51323	0.63408	-1.07121	19.92768	708.86603	23.7
13.957	91.866	18.46197	8.95035	9.65643	17.71559	2.27819	-0.71983	19.92988	708.86603	23.7
11.259	92.305	19.02861	9.42117	10.24196	16.78667	3.97818	-0.39323	19.87606	708.86603	23.7
